##TITLE=No Description
##DATA TYPE=INFRARED SPECTRUM
##XUNITS=1/CM
##YUNITS=%T
399.452061  	55.764849 
400.888939  	54.836705 
402.325817  	55.394337 
403.762695  	57.374282 
405.199573  	56.250269 
406.636451  	55.183739 
408.073328  	55.957571 
409.510206  	56.158172 
410.947084  	55.583805 
412.383962  	54.524932 
413.820840  	53.898481 
415.257718  	53.552334 
416.694596  	53.894159 
418.131474  	54.706777 
419.568352  	52.208536 
421.005230  	51.813810 
422.442108  	52.636319 
423.878986  	51.720050 
425.315863  	51.675799 
426.752741  	51.921510 
428.189619  	51.332436 
429.626497  	51.662942 
431.063375  	51.019490 
432.500253  	49.638563 
433.937131  	49.862397 
435.374009  	50.033079 
436.810887  	50.611735 
438.247765  	50.895132 
439.684643  	49.656284 
441.121521  	48.999194 
442.558398  	48.738433 
443.995276  	48.867795 
445.432154  	49.714947 
446.869032  	49.302534 
448.305910  	49.128812 
449.742788  	49.558293 
451.179666  	49.274810 
452.616544  	50.309949 
454.053422  	51.354063 
455.490300  	51.145122 
456.927178  	51.291725 
458.364056  	50.718452 
459.800933  	50.832475 
461.237811  	52.041178 
462.674689  	51.862406 
464.111567  	51.961883 
465.548445  	53.174308 
466.985323  	53.736406 
468.422201  	54.465203 
469.859079  	55.362263 
471.295957  	56.179371 
472.732835  	57.325576 
474.169713  	57.973029 
475.606591  	59.055240 
477.043469  	60.913520 
478.480346  	62.059995 
479.917224  	62.991636 
481.354102  	64.626408 
482.790980  	66.407795 
484.227858  	67.802992 
485.664736  	68.934135 
487.101614  	70.162699 
488.538492  	71.306604 
489.975370  	72.497989 
491.412248  	73.646013 
492.849126  	74.098046 
494.286004  	74.960889 
495.722881  	76.520934 
497.159759  	77.299245 
498.596637  	77.849840 
500.033515  	78.729196 
501.470393  	79.133738 
502.907271  	79.485429 
504.344149  	80.041257 
505.781027  	80.535467 
507.217905  	81.193033 
508.654783  	81.652065 
510.091661  	81.935488 
511.528539  	82.201532 
512.965416  	82.454064 
514.402294  	82.935096 
515.839172  	83.000124 
517.276050  	82.769934 
518.712928  	83.267628 
520.149806  	83.649264 
521.586684  	83.574080 
523.023562  	83.497957 
524.460440  	83.123402 
525.897318  	83.030955 
527.334196  	83.357998 
528.771074  	83.145559 
530.207951  	82.883616 
531.644829  	83.025019 
533.081707  	83.162827 
534.518585  	83.164062 
535.955463  	83.041756 
537.392341  	83.060134 
538.829219  	83.198514 
540.266097  	83.094017 
541.702975  	82.997805 
543.139853  	83.029503 
544.576731  	83.023702 
546.013609  	83.059741 
547.450486  	83.064171 
548.887364  	83.066574 
550.324242  	83.140951 
551.761120  	83.260919 
553.197998  	83.390323 
554.634876  	83.251142 
556.071754  	83.085381 
557.508632  	83.371216 
558.945510  	83.720426 
560.382388  	83.807408 
561.819266  	83.755889 
563.256144  	83.774285 
564.693021  	84.068912 
566.129899  	84.271933 
567.566777  	84.293305 
569.003655  	84.487691 
570.440533  	84.484551 
571.877411  	84.358273 
573.314289  	84.623961 
574.751167  	84.828274 
576.188045  	84.812072 
577.624923  	85.015856 
579.061801  	85.219591 
580.498679  	85.226030 
581.935556  	85.281946 
583.372434  	85.493503 
584.809312  	85.713311 
586.246190  	85.746384 
587.683068  	85.715817 
589.119946  	85.875012 
590.556824  	86.135614 
591.993702  	86.294771 
593.430580  	86.373829 
594.867458  	86.489003 
596.304336  	86.612157 
597.741214  	86.698477 
599.178091  	86.786591 
600.614969  	86.866545 
602.051847  	86.996828 
603.488725  	87.192140 
604.925603  	87.276625 
606.362481  	87.327007 
607.799359  	87.417941 
609.236237  	87.520024 
610.673115  	87.663084 
612.109993  	87.840557 
613.546871  	87.958402 
614.983749  	87.933983 
616.420626  	87.898268 
617.857504  	87.975048 
619.294382  	88.075258 
620.731260  	88.058754 
622.168138  	88.195608 
623.605016  	88.336149 
625.041894  	88.295882 
626.478772  	88.227431 
627.915650  	88.274358 
629.352528  	88.263121 
630.789406  	88.247651 
632.226284  	88.320560 
633.663161  	88.309225 
635.100039  	88.321497 
636.536917  	88.443474 
637.973795  	88.479130 
639.410673  	88.431532 
640.847551  	88.528018 
642.284429  	88.605958 
643.721307  	88.550493 
645.158185  	88.572960 
646.595063  	88.592789 
648.031941  	88.520621 
649.468819  	88.533816 
650.905696  	88.552437 
652.342574  	88.539576 
653.779452  	88.609321 
655.216330  	88.678859 
656.653208  	88.766008 
658.090086  	88.781105 
659.526964  	88.696079 
660.963842  	88.629755 
662.400720  	88.731672 
663.837598  	88.842613 
665.274476  	88.876703 
666.711354  	88.856075 
668.148231  	88.816984 
669.585109  	88.877731 
671.021987  	88.832988 
672.458865  	88.788881 
673.895743  	88.726021 
675.332621  	88.667994 
676.769499  	88.720114 
678.206377  	88.779120 
679.643255  	88.754135 
681.080133  	88.771666 
682.517011  	88.806756 
683.953889  	88.805255 
685.390766  	88.822325 
686.827644  	88.886754 
688.264522  	88.942207 
689.701400  	88.951909 
691.138278  	88.910916 
692.575156  	88.899923 
694.012034  	88.907336 
695.448912  	88.952503 
696.885790  	88.937216 
698.322668  	88.845768 
699.759546  	88.865292 
701.196424  	88.939236 
702.633301  	88.939341 
704.070179  	88.969694 
705.507057  	88.991239 
706.943935  	88.949360 
708.380813  	88.912796 
709.817691  	88.924267 
711.254569  	88.940757 
712.691447  	88.965914 
714.128325  	88.956672 
715.565203  	88.952711 
717.002081  	88.931148 
718.438959  	88.869436 
719.875837  	88.834708 
721.312714  	88.779374 
722.749592  	88.742294 
724.186470  	88.729621 
725.623348  	88.685302 
727.060226  	88.667898 
728.497104  	88.673859 
729.933982  	88.572469 
731.370860  	88.515579 
732.807738  	88.596038 
734.244616  	88.563505 
735.681494  	88.527090 
737.118372  	88.505729 
738.555249  	88.468135 
739.992127  	88.439779 
741.429005  	88.366395 
742.865883  	88.286771 
744.302761  	88.187668 
745.739639  	88.079688 
747.176517  	88.079865 
748.613395  	88.153476 
750.050273  	88.191557 
751.487151  	88.143617 
752.924029  	87.989610 
754.360907  	87.872247 
755.797784  	87.892621 
757.234662  	87.907506 
758.671540  	87.852141 
760.108418  	87.805407 
761.545296  	87.766866 
762.982174  	87.673093 
764.419052  	87.519981 
765.855930  	87.372985 
767.292808  	87.184097 
768.729686  	86.857209 
770.166564  	86.515917 
771.603442  	86.226899 
773.040319  	85.862944 
774.477197  	85.457599 
775.914075  	85.009247 
777.350953  	84.409830 
778.787831  	83.856842 
780.224709  	83.519445 
781.661587  	83.247763 
783.098465  	82.973698 
784.535343  	82.754699 
785.972221  	82.592150 
787.409099  	82.488450 
788.845977  	82.395823 
790.282854  	82.215126 
791.719732  	82.016320 
793.156610  	81.927136 
794.593488  	81.911134 
796.030366  	81.942754 
797.467244  	82.035353 
798.904122  	82.101677 
800.341000  	82.135382 
801.777878  	82.240237 
803.214756  	82.399694 
804.651634  	82.512102 
806.088512  	82.623932 
807.525389  	82.854113 
808.962267  	83.118730 
810.399145  	83.330489 
811.836023  	83.605521 
813.272901  	83.949592 
814.709779  	84.223328 
816.146657  	84.430531 
817.583535  	84.724219 
819.020413  	85.090376 
820.457291  	85.311910 
821.894169  	85.518271 
823.331047  	85.902663 
824.767924  	86.200554 
826.204802  	86.436914 
827.641680  	86.826437 
829.078558  	87.140583 
830.515436  	87.384038 
831.952314  	87.711529 
833.389192  	88.000937 
834.826070  	88.278801 
836.262948  	88.508945 
837.699826  	88.659455 
839.136704  	88.960461 
840.573582  	89.320430 
842.010459  	89.549092 
843.447337  	89.772395 
844.884215  	90.028152 
846.321093  	90.233730 
847.757971  	90.353325 
849.194849  	90.443268 
850.631727  	90.538929 
852.068605  	90.564550 
853.505483  	90.634231 
854.942361  	90.800628 
856.379239  	90.848281 
857.816117  	90.824358 
859.252994  	90.850580 
860.689872  	90.880693 
862.126750  	90.938981 
863.563628  	90.927356 
865.000506  	90.796063 
866.437384  	90.678864 
867.874262  	90.558236 
869.311140  	90.491518 
870.748018  	90.548213 
872.184896  	90.526514 
873.621774  	90.382771 
875.058652  	90.244805 
876.495529  	90.122335 
877.932407  	90.001443 
879.369285  	89.885429 
880.806163  	89.794809 
882.243041  	89.663095 
883.679919  	89.434586 
885.116797  	89.260972 
886.553675  	89.143528 
887.990553  	88.974645 
889.427431  	88.824356 
890.864309  	88.635857 
892.301187  	88.371000 
893.738064  	88.149424 
895.174942  	87.917437 
896.611820  	87.674090 
898.048698  	87.497626 
899.485576  	87.277337 
900.922454  	87.006786 
902.359332  	86.796072 
903.796210  	86.604453 
905.233088  	86.371366 
906.669966  	86.173127 
908.106844  	86.049723 
909.543722  	85.826185 
910.980599  	85.502279 
912.417477  	85.289381 
913.854355  	85.067320 
915.291233  	84.753608 
916.728111  	84.521348 
918.164989  	84.303230 
919.601867  	84.051734 
921.038745  	83.790858 
922.475623  	83.443663 
923.912501  	83.152913 
925.349379  	82.944763 
926.786257  	82.670363 
928.223134  	82.401017 
929.660012  	82.119728 
931.096890  	81.828273 
932.533768  	81.611609 
933.970646  	81.347722 
935.407524  	81.077636 
936.844402  	80.879402 
938.281280  	80.673915 
939.718158  	80.522233 
941.155036  	80.345554 
942.591914  	80.092948 
944.028792  	79.899056 
945.465670  	79.672899 
946.902547  	79.444915 
948.339425  	79.322964 
949.776303  	79.178959 
951.213181  	79.009668 
952.650059  	78.803912 
954.086937  	78.613111 
955.523815  	78.592497 
956.960693  	78.552460 
958.397571  	78.424503 
959.834449  	78.316451 
961.271327  	78.159830 
962.708205  	78.074367 
964.145082  	78.071341 
965.581960  	78.042310 
967.018838  	78.112381 
968.455716  	78.200641 
969.892594  	78.262062 
971.329472  	78.398016 
972.766350  	78.545811 
974.203228  	78.814405 
975.640106  	79.178199 
977.076984  	79.489499 
978.513862  	79.898768 
979.950740  	80.345005 
981.387617  	80.743799 
982.824495  	81.187788 
984.261373  	81.568428 
985.698251  	81.888724 
987.135129  	82.160359 
988.572007  	82.324414 
990.008885  	82.460634 
991.445763  	82.442430 
992.882641  	82.254675 
994.319519  	82.049986 
995.756397  	81.695856 
997.193275  	81.235541 
998.630152  	80.749438 
1000.067030  	80.144498 
1001.503908  	79.540980 
1002.940786  	78.823449 
1004.377664  	77.945459 
1005.814542  	77.193734 
1007.251420  	76.372257 
1008.688298  	75.418248 
1010.125176  	74.552715 
1011.562054  	73.603834 
1012.998932  	72.648732 
1014.435810  	71.737428 
1015.872687  	70.714992 
1017.309565  	69.768182 
1018.746443  	68.782157 
1020.183321  	67.737544 
1021.620199  	66.899776 
1023.057077  	65.995301 
1024.493955  	65.019181 
1025.930833  	64.158645 
1027.367711  	63.294930 
1028.804589  	62.567123 
1030.241467  	61.852908 
1031.678345  	61.090035 
1033.115222  	60.517603 
1034.552100  	59.889945 
1035.988978  	59.298393 
1037.425856  	58.882354 
1038.862734  	58.323922 
1040.299612  	57.866971 
1041.736490  	57.561270 
1043.173368  	57.200533 
1044.610246  	56.957205 
1046.047124  	56.662506 
1047.484002  	56.398591 
1048.920880  	56.309846 
1050.357757  	56.098522 
1051.794635  	55.972586 
1053.231513  	55.923840 
1054.668391  	55.788145 
1056.105269  	55.842598 
1057.542147  	55.843980 
1058.979025  	55.790368 
1060.415903  	55.911255 
1061.852781  	55.911009 
1063.289659  	55.966642 
1064.726537  	56.111734 
1066.163415  	56.155847 
1067.600292  	56.385654 
1069.037170  	56.582332 
1070.474048  	56.679807 
1071.910926  	56.935021 
1073.347804  	57.102395 
1074.784682  	57.313365 
1076.221560  	57.571061 
1077.658438  	57.675711 
1079.095316  	57.985531 
1080.532194  	58.338069 
1081.969072  	58.555253 
1083.405950  	58.875040 
1084.842827  	59.134037 
1086.279705  	59.435047 
1087.716583  	59.797907 
1089.153461  	60.047301 
1090.590339  	60.447323 
1092.027217  	60.811008 
1093.464095  	61.040915 
1094.900973  	61.411636 
1096.337851  	61.683383 
1097.774729  	61.940708 
1099.211607  	62.293999 
1100.648485  	62.483095 
1102.085362  	62.720661 
1103.522240  	62.972454 
1104.959118  	63.105485 
1106.395996  	63.335588 
1107.832874  	63.527309 
1109.269752  	63.741652 
1110.706630  	64.080238 
1112.143508  	64.339425 
1113.580386  	64.676822 
1115.017264  	65.072839 
1116.454142  	65.445545 
1117.891020  	65.952577 
1119.327897  	66.414168 
1120.764775  	66.871955 
1122.201653  	67.424774 
1123.638531  	67.907221 
1125.075409  	68.456531 
1126.512287  	68.988181 
1127.949165  	69.422997 
1129.386043  	69.985998 
1130.822921  	70.494425 
1132.259799  	70.938973 
1133.696677  	71.449171 
1135.133555  	71.839462 
1136.570432  	72.254596 
1138.007310  	72.732018 
1139.444188  	73.104524 
1140.881066  	73.488473 
1142.317944  	73.818710 
1143.754822  	74.129457 
1145.191700  	74.542353 
1146.628578  	74.854939 
1148.065456  	75.117500 
1149.502334  	75.411778 
1150.939212  	75.656789 
1152.376090  	75.933939 
1153.812967  	76.159069 
1155.249845  	76.361113 
1156.686723  	76.655461 
1158.123601  	76.858946 
1159.560479  	77.044837 
1160.997357  	77.299812 
1162.434235  	77.492543 
1163.871113  	77.719978 
1165.307991  	77.946835 
1166.744869  	78.118612 
1168.181747  	78.347434 
1169.618625  	78.546189 
1171.055502  	78.742164 
1172.492380  	78.979943 
1173.929258  	79.170135 
1175.366136  	79.401354 
1176.803014  	79.612870 
1178.239892  	79.754517 
1179.676770  	79.971450 
1181.113648  	80.184319 
1182.550526  	80.378316 
1183.987404  	80.597790 
1185.424282  	80.768860 
1186.861160  	80.981703 
1188.298038  	81.201682 
1189.734915  	81.375289 
1191.171793  	81.625441 
1192.608671  	81.849640 
1194.045549  	82.025989 
1195.482427  	82.259560 
1196.919305  	82.464109 
1198.356183  	82.659284 
1199.793061  	82.868555 
1201.229939  	83.064675 
1202.666817  	83.294837 
1204.103695  	83.481499 
1205.540573  	83.669258 
1206.977450  	83.929938 
1208.414328  	84.137006 
1209.851206  	84.352956 
1211.288084  	84.610807 
1212.724962  	84.824502 
1214.161840  	85.077995 
1215.598718  	85.332771 
1217.035596  	85.558474 
1218.472474  	85.835204 
1219.909352  	86.080364 
1221.346230  	86.317414 
1222.783108  	86.594959 
1224.219985  	86.838676 
1225.656863  	87.112498 
1227.093741  	87.407785 
1228.530619  	87.680511 
1229.967497  	88.009980 
1231.404375  	88.333625 
1232.841253  	88.625389 
1234.278131  	88.960219 
1235.715009  	89.279392 
1237.151887  	89.571422 
1238.588765  	89.887852 
1240.025643  	90.218536 
1241.462520  	90.564867 
1242.899398  	90.916961 
1244.336276  	91.268389 
1245.773154  	91.627170 
1247.210032  	91.976318 
1248.646910  	92.316467 
1250.083788  	92.656335 
1251.520666  	92.996919 
1252.957544  	93.328819 
1254.394422  	93.629541 
1255.831300  	93.906491 
1257.268178  	94.173140 
1258.705055  	94.431045 
1260.141933  	94.685726 
1261.578811  	94.916056 
1263.015689  	95.104432 
1264.452567  	95.266225 
1265.889445  	95.414638 
1267.326323  	95.562341 
1268.763201  	95.713247 
1270.200079  	95.849100 
1271.636957  	95.968607 
1273.073835  	96.088287 
1274.510713  	96.200073 
1275.947590  	96.279824 
1277.384468  	96.332633 
1278.821346  	96.390089 
1280.258224  	96.458852 
1281.695102  	96.525707 
1283.131980  	96.601731 
1284.568858  	96.683404 
1286.005736  	96.728972 
1287.442614  	96.739150 
1288.879492  	96.765546 
1290.316370  	96.823248 
1291.753248  	96.894883 
1293.190125  	96.959592 
1294.627003  	96.981894 
1296.063881  	96.979403 
1297.500759  	97.014296 
1298.937637  	97.069985 
1300.374515  	97.100051 
1301.811393  	97.113256 
1303.248271  	97.107335 
1304.685149  	97.119408 
1306.122027  	97.179655 
1307.558905  	97.242084 
1308.995783  	97.270838 
1310.432660  	97.270519 
1311.869538  	97.251353 
1313.306416  	97.249752 
1314.743294  	97.272772 
1316.180172  	97.289229 
1317.617050  	97.284772 
1319.053928  	97.296366 
1320.490806  	97.315865 
1321.927684  	97.338849 
1323.364562  	97.356504 
1324.801440  	97.379191 
1326.238318  	97.418494 
1327.675195  	97.438366 
1329.112073  	97.414584 
1330.548951  	97.403023 
1331.985829  	97.431470 
1333.422707  	97.456743 
1334.859585  	97.458805 
1336.296463  	97.432214 
1337.733341  	97.404463 
1339.170219  	97.397966 
1340.607097  	97.431635 
1342.043975  	97.467535 
1343.480853  	97.493387 
1344.917730  	97.524151 
1346.354608  	97.556603 
1347.791486  	97.537439 
1349.228364  	97.513508 
1350.665242  	97.509844 
1352.102120  	97.504587 
1353.538998  	97.507391 
1354.975876  	97.531802 
1356.412754  	97.549579 
1357.849632  	97.541054 
1359.286510  	97.512334 
1360.723388  	97.490152 
1362.160265  	97.499716 
1363.597143  	97.515189 
1365.034021  	97.531820 
1366.470899  	97.554482 
1367.907777  	97.541799 
1369.344655  	97.516723 
1370.781533  	97.504205 
1372.218411  	97.525429 
1373.655289  	97.540117 
1375.092167  	97.560659 
1376.529045  	97.608701 
1377.965923  	97.637935 
1379.402800  	97.602881 
1380.839678  	97.560461 
1382.276556  	97.563605 
1383.713434  	97.555090 
1385.150312  	97.527559 
1386.587190  	97.522264 
1388.024068  	97.569377 
1389.460946  	97.603517 
1390.897824  	97.590786 
1392.334702  	97.596540 
1393.771580  	97.615230 
1395.208458  	97.552054 
1396.645335  	97.499960 
1398.082213  	97.525699 
1399.519091  	97.602885 
1400.955969  	97.653523 
1402.392847  	97.640790 
1403.829725  	97.590633 
1405.266603  	97.558652 
1406.703481  	97.571216 
1408.140359  	97.602069 
1409.577237  	97.600394 
1411.014115  	97.582151 
1412.450993  	97.594357 
1413.887871  	97.564028 
1415.324748  	97.496282 
1416.761626  	97.488116 
1418.198504  	97.533911 
1419.635382  	97.541255 
1421.072260  	97.521765 
1422.509138  	97.481439 
1423.946016  	97.467125 
1425.382894  	97.487416 
1426.819772  	97.531129 
1428.256650  	97.542727 
1429.693528  	97.536255 
1431.130406  	97.571294 
1432.567283  	97.570271 
1434.004161  	97.501065 
1435.441039  	97.500276 
1436.877917  	97.546241 
1438.314795  	97.587920 
1439.751673  	97.584799 
1441.188551  	97.576484 
1442.625429  	97.534390 
1444.062307  	97.518189 
1445.499185  	97.537189 
1446.936063  	97.557008 
1448.372941  	97.538539 
1449.809818  	97.537131 
1451.246696  	97.557479 
1452.683574  	97.557941 
1454.120452  	97.508652 
1455.557330  	97.522327 
1456.994208  	97.544989 
1458.431086  	97.598819 
1459.867964  	97.632050 
1461.304842  	97.652470 
1462.741720  	97.668405 
1464.178598  	97.679300 
1465.615476  	97.666144 
1467.052353  	97.633291 
1468.489231  	97.608510 
1469.926109  	97.640139 
1471.362987  	97.673537 
1472.799865  	97.613721 
1474.236743  	97.607766 
1475.673621  	97.620441 
1477.110499  	97.646144 
1478.547377  	97.698837 
1479.984255  	97.711583 
1481.421133  	97.664489 
1482.858011  	97.567953 
1484.294888  	97.544078 
1485.731766  	97.595328 
1487.168644  	97.618302 
1488.605522  	97.577309 
1490.042400  	97.554118 
1491.479278  	97.568455 
1492.916156  	97.589851 
1494.353034  	97.632347 
1495.789912  	97.655952 
1497.226790  	97.617891 
1498.663668  	97.585689 
1500.100546  	97.579094 
1501.537423  	97.575713 
1502.974301  	97.540392 
1504.411179  	97.535661 
1505.848057  	97.525395 
1507.284935  	97.346046 
1508.721813  	97.464279 
1510.158691  	97.574760 
1511.595569  	97.627566 
1513.032447  	97.639378 
1514.469325  	97.627512 
1515.906203  	97.550290 
1517.343081  	97.437703 
1518.779958  	97.505339 
1520.216836  	97.591884 
1521.653714  	97.592028 
1523.090592  	97.595091 
1524.527470  	97.576790 
1525.964348  	97.535348 
1527.401226  	97.529205 
1528.838104  	97.595281 
1530.274982  	97.621872 
1531.711860  	97.538004 
1533.148738  	97.473002 
1534.585616  	97.467228 
1536.022493  	97.423225 
1537.459371  	97.445346 
1538.896249  	97.501412 
1540.333127  	97.467184 
1541.770005  	97.612769 
1543.206883  	97.660387 
1544.643761  	97.541076 
1546.080639  	97.519772 
1547.517517  	97.639476 
1548.954395  	97.698385 
1550.391273  	97.597058 
1551.828151  	97.514954 
1553.265028  	97.572641 
1554.701906  	97.586915 
1556.138784  	97.570144 
1557.575662  	97.678077 
1559.012540  	97.658102 
1560.449418  	97.664453 
1561.886296  	97.649853 
1563.323174  	97.665264 
1564.760052  	97.672541 
1566.196930  	97.616873 
